         AS		             SR300°C/5h		        SA100°C/15min	
   2θ     Intensity       2θ     Intensity     2θ     Intensity
30.02626	1247.00906	30.02626	1202.00895	30.02626	1414.01058
30.07926	1259.30136	30.07926	1233.83527	30.07926	1456.33017
30.13226	1291.05349	30.13226	1215.20149	30.13226	1490.82897
30.18526	1295.10677	30.18526	1228.61047	30.18526	1484.50291
30.23826	1264.54095	30.23826	1252.23386	30.23826	1498.10806
30.29126	1305.10055	30.29126	1310.827	  30.29126	1399.98025
30.34426	1307.93966	30.34426	1303.6165	  30.34426	1500.39902
30.39726	1320.38793	30.39726	1245.60183	30.39726	1442.16968
30.45026	1271.29125	30.45026	1257.12416	30.45026	1501.60386
30.50326	1305.87003	30.50326	1281.87559	30.50326	1468.05631
30.55626	1237.40711	30.55626	1253.81443	30.55626	1439.6608
30.60926	1343.88756	30.60926	1211.50713	30.60926	1484.80691
30.66226	1278.43108	30.66226	1212.43482	30.66226	1476.14503
30.71526	1271.69827	30.71526	1258.66835	30.71526	1489.74381
30.76826	1306.35043	30.76826	1269.09436	30.76826	1468.22243
30.82126	1253.59866	30.82126	1253.95738	30.82126	1528.98389
30.87426	1266.62021	30.87426	1244.21868	30.87426	1480.32682
30.92726	1351.91588	30.92726	1263.27316	30.92726	1527.71552
30.98026	1312.77316	30.98026	1257.29576	30.98026	1512.31291
31.03326	1286.20631	31.03326	1220.60729	31.03326	1478.40478
31.08626	1311.55648	31.08626	1226.62614	31.08626	1506.30979
31.13926	1311.71156	31.13926	1210.64676	31.13926	1425.66951
31.19226	1311.99085	31.19226	1263.76258	31.19226	1492.94775
31.24526	1352.84849	31.24526	1264.68666	31.24526	1486.67253
31.29826	1348.56964	31.29826	1284.79513	31.29826	1501.44603
31.35126	1308.10448	31.35126	1317.59711	31.35126	1467.06896
31.40426	1271.20328	31.40426	1248.25866	31.40426	1442.33817
31.45726	1289.93064	31.45726	1212.08831	31.45726	1478.75666
31.51026	1263.60271	31.51026	1240.8382	  31.51026	1470.03168
31.56326	1297.73106	31.56326	1258.3549	  31.56326	1494.16365
31.61626	1273.32718	31.61626	1272.1796	  31.61626	1528.39265
31.66926	1299.59358	31.66926	1257.76909	31.66926	1474.59968
31.72226	1264.71369	31.72226	1264.46877	31.72226	1498.12111
31.77526	1275.32751	31.77526	1278.12518	31.77526	1484.01063
31.82826	1290.93925	31.82826	1217.82871	31.82826	1499.20072
31.88126	1292.69014	31.88126	1246.41215	31.88126	1513.54426
31.93426	1299.55904	31.93426	1271.07012	31.93426	1472.9953
31.98726	1302.81742	31.98726	1259.25244	31.98726	1487.43858
32.04026	1289.05664	32.04026	1263.78878	32.04026	1529.68054
32.09326	1300.89758	32.09326	1263.25147	32.09326	1538.4755
32.14626	1304.05667	32.14626	1225.6559	  32.14626	1517.35244
32.19926	1340.60785	32.19926	1248.45776	32.19926	1548.66517
32.25226	1359.22231	32.25226	1270.64764	32.25226	1513.86276
32.30526	1358.56009	32.30526	1267.89038	32.30526	1493.98912
32.35826	1365.06428	32.35826	1246.91809	32.35826	1505.39383
32.41126	1356.2157	32.41126	1217.51143	  32.41126	1503.46626
32.46426	1304.17057	32.46426	1237.07315	32.46426	1531.88344
32.51726	1319.29294	32.51726	1215.01116	32.51726	1535.72833
32.57026	1335.75792	32.57026	1224.26924	32.57026	1519.14002
32.62326	1292.8215	32.62326	1250.03198	  32.62326	1540.92543
32.67626	1279.46539	32.67626	1243.5973	  32.67626	1541.99629
32.72926	1316.54442	32.72926	1245.66352	32.72926	1550.8915
32.78226	1305.57834	32.78226	1223.74153	32.78226	1563.74397
32.83526	1288.21009	32.83526	1233.98995	32.83526	1559.9777
32.88826	1276.1005	32.88826	1260.84154	  32.88826	1549.19382
32.94126	1296.4933	32.94126	1281.44413	  32.94126	1535.89649
32.99426	1302.58679	32.99426	1280.79791	32.99426	1552.37028
33.04726	1307.43472	33.04726	1281.92264	33.04726	1559.13709
33.10026	1327.89426	33.10026	1290.42281	33.10026	1578.0384
33.15326	1344.83746	33.15326	1273.94687	33.15326	1538.45848
33.20626	1336.39175	33.20626	1242.40877	33.20626	1560.14701
33.25926	1318.79038	33.25926	1248.14407	33.25926	1551.70674
33.31226	1345.31807	33.31226	1265.00906	33.31226	1514.36209
33.36526	1322.07557	33.36526	1232.26591	33.36526	1473.71572
33.41826	1329.52461	33.41826	1279.78728	33.41826	1484.5312
33.47126	1374.09709	33.47126	1281.13293	33.47126	1525.45607
33.52426	1328.24259	33.52426	1260.24728	33.52426	1554.48764
33.57726	1321.77438	33.57726	1286.11339	33.57726	1589.72643
33.63026	1363.08937	33.63026	1264.14967	33.63026	1559.47195
33.68326	1353.36162	33.68326	1220.73156	33.68326	1550.99717
33.73626	1292.77965	33.73626	1248.49441	33.73626	1507.39881
33.78926	1365.05629	33.78926	1241.58284	33.78926	1515.20526
33.84226	1342.85706	33.84226	1206.62699	33.84226	1508.43833
33.89526	1357.58994	33.89526	1183.03061	33.89526	1542.60076
33.94826	1370.1656	33.94826	1244.15737	  33.94826	1556.21535
34.00126	1388.21116	34.00126	1286.48952	34.00126	1550.21467
34.05426	1332.79687	34.05426	1279.92254	34.05426	1557.63321
34.10726	1320.56043	34.10726	1252.54373	34.10726	1572.24389
34.16026	1338.67705	34.16026	1316.2593	  34.16026	1524.3848
34.21326	1288.98759	34.21326	1268.93822	34.21326	1513.81517
34.26626	1385.44547	34.26626	1236.82062	34.26626	1519.46971
34.31926	1360.3257	34.31926	1309.12465	  34.31926	1562.10786
34.37226	1388.34635	34.37226	1253.51372	34.37226	1532.89887
34.42526	1350.76417	34.42526	1230.54954	34.42526	1591.41981
34.47826	1340.66873	34.47826	1250.39086	34.47826	1520.80365
34.53126	1366.93615	34.53126	1306.29084	34.53126	1512.05155
34.58426	1364.6007	34.58426	1290.42975	  34.58426	1541.53373
34.63726	1302.51826	34.63726	1308.97866	34.63726	1498.03823
34.69026	1331.13819	34.69026	1250.21715	34.69026	1519.51147
34.74326	1360.67342	34.74326	1216.15651	34.74326	1547.48622
34.79626	1376.4981	34.79626	1263.70614	  34.79626	1553.65231
34.84926	1374.86128	34.84926	1216.09905	34.84926	1524.14123
34.90226	1369.81562	34.90226	1260.21119	34.90226	1584.27957
34.95526	1324.91541	34.95526	1314.25553	34.95526	1544.43735
35.00826	1374.43473	35.00826	1278.29768	35.00826	1534.1539
35.06126	1378.8126	35.06126	1324.71468	  35.06126	1563.46243
35.11426	1350.77638	35.11426	1318.03312	35.11426	1588.90385
35.16726	1409.80176	35.16726	1246.14215	35.16726	1530.10369
35.22026	1337.59328	35.22026	1286.15251	35.22026	1546.13597
35.27326	1387.58413	35.27326	1339.84948	35.27326	1595.04603
35.32626	1383.06874	35.32626	1250.1855	  35.32626	1513.39326
35.37926	1375.56363	35.37926	1290.73724	35.37926	1540.9257
35.43226	1381.51999	35.43226	1203.86729	35.43226	1601.67232
35.48526	1365.10529	35.48526	1299.3754	  35.48526	1621.03783
35.53826	1337.45821	35.53826	1370.49172	35.53826	1611.58065
35.59126	1337.92436	35.59126	1265.82422	35.59126	1573.67314
35.64426	1385.26831	35.64426	1310.20625	35.64426	1568.99774
35.69726	1390.91222	35.69726	1308.10711	35.69726	1577.79139
35.75026	1443.1989	35.75026	1290.28483	  35.75026	1604.59812
35.80326	1352.57875	35.80326	1285.04013	35.80326	1614.94971
35.85626	1379.00102	35.85626	1261.07402	35.85626	1581.02609
35.90926	1375.99778	35.90926	1283.57688	35.90926	1585.62485
35.96226	1374.713	35.96226	1329.69148	  35.96226	1555.70741
36.01526	1360.7368	36.01526	1314.37253	  36.01526	1631.79774
36.06826	1354.92922	36.06826	1293.77255	36.06826	1563.1022
36.12126	1421.29863	36.12126	1288.01269	36.12126	1610.74149
36.17426	1331.75873	36.17426	1295.42648	36.17426	1556.09962
36.22726	1344.41016	36.22726	1379.60408	36.22726	1665.93726
36.28026	1360.48111	36.28026	1314.3672	  36.28026	1578.50729
36.33326	1478.66013	36.33326	1279.01961	36.33326	1554.21644
36.38626	1379.70421	36.38626	1373.75074	36.38626	1627.03591
36.43926	1395.39047	36.43926	1347.15672	36.43926	1676.33869
36.49226	1388.77378	36.49226	1309.84166	36.49226	1603.5962
36.54526	1382.16899	36.54526	1349.3462	  36.54526	1619.63748
36.59826	1401.61371	36.59826	1354.96023	36.59826	1592.5834
36.65126	1380.5859	  36.65126	1332.1035	  36.65126	1619.26203
36.70426	1389.07548	36.70426	1355.77764	36.70426	1585.25575
36.75726	1375.79884	36.75726	1333.53376	36.75726	1526.69708
36.81026	1372.86374	36.81026	1294.20194	36.81026	1585.70752
36.86326	1412.78181	36.86326	1335.38666	36.86326	1638.44096
36.91626	1388.74795	36.91626	1292.21065	36.91626	1594.75586
36.96926	1354.26094	36.96926	1397.17713	36.96926	1616.31743
37.02226	1306.92211	37.02226	1373.21339	37.02226	1612.00346
37.07526	1380.41275	37.07526	1350.61501	37.07526	1634.38187
37.12826	1397.00247	37.12826	1264.89628	37.12826	1560.67282
37.18126	1401.44247	37.18126	1284.077	  37.18126	1588.82752
37.23426	1380.80901	37.23426	1331.77005	37.23426	1645.7723
37.28726	1400.06371	37.28726	1314.50047	37.28726	1620.7804
37.34026	1385.22284	37.34026	1304.4497	  37.34026	1623.6042
37.39326	1465.05927	37.39326	1287.16123	37.39326	1649.74162
37.44626	1425.27423	37.44626	1372.48024	37.44626	1589.94129
37.49926	1379.57802	37.49926	1346.01425	37.49926	1614.44574
37.55226	1394.52595	37.55226	1329.27234	37.55226	1585.37959
37.60526	1384.47929	37.60526	1352.19792	37.60526	1614.55802
37.65826	1397.94895	37.65826	1339.52109	37.65826	1631.30934
37.71126	1421.80661	37.71126	1353.65699	37.71126	1619.87763
37.76426	1438.20628	37.76426	1336.75681	37.76426	1641.01176
37.81726	1402.51025	37.81726	1311.32883	37.81726	1623.9976
37.87026	1424.85302	37.87026	1326.43156	37.87026	1598.69837
37.92326	1408.84369	37.92326	1352.70733	37.92326	1613.37009
37.97626	1451.14247	37.97626	1347.21558	37.97626	1593.42273
38.02926	1438.05302	38.02926	1334.43125	38.02926	1572.3289
38.08226	1447.99361	38.08226	1307.78118	38.08226	1614.14908
38.13526	1438.43019	38.13526	1317.30505	38.13526	1648.54222
38.18826	1430.35209	38.18826	1311.4183	  38.18826	1644.483
38.24126	1393.49373	38.24126	1280.70294	38.24126	1628.90462
38.29426	1351.64442	38.29426	1264.09111	38.29426	1625.29108
38.34726	1329.29964	38.34726	1284.2515	  38.34726	1601.20488
38.40026	1337.25604	38.40026	1322.3167	  38.40026	1590.06068
38.45326	1355.92679	38.45326	1342.38842	38.45326	1613.40214
38.50626	1346.49233	38.50626	1350.35038	38.50626	1654.4122
38.55926	1374.41371	38.55926	1330.32387	38.55926	1679.67226
38.61226	1383.16611	38.61226	1353.34925	38.61226	1674.6266
38.66526	1364.26851	38.66526	1329.78206	38.66526	1672.98439
38.71826	1344.43023	38.71826	1331.22464	38.71826	1668.068
38.77126	1375.20584	38.77126	1289.36781	38.77126	1634.26672
38.82426	1356.85475	38.82426	1267.21724	38.82426	1637.7054
38.87726	1343.5733	38.87726	  1310.8736	  38.87726	1676.94201
38.93026	1388.3437	38.93026	  1352.14544	38.93026	1692.92496
38.98326	1418.2869	38.98326	  1336.3806	  38.98326	1686.03094
39.03626	1381.35942	39.03626	1299.90941	39.03626	1684.36216
39.08926	1379.2351	39.08926	  1342.67571	39.08926	1652.87271
39.14226	1413.26093	39.14226	1370.00981	39.14226	1635.64984
39.19526	1369.50988	39.19526	1329.01553	39.19526	1642.54749
39.24826	1373.30567	39.24826	1327.74825	39.24826	1686.93248
39.30126	1364.08073	39.30126	1350.98783	39.30126	1699.76077
39.35426	1387.89192	39.35426	1294.86155	39.35426	1671.98184
39.40726	1427.98972	39.40726	1367.49499	39.40726	1674.06051
39.46026	1442.97724	39.46026	1400.88001	39.46026	1694.0937
39.51326	1442.68977	39.51326	1364.47248	39.51326	1715.28547
39.56626	1448.62809	39.56626	1363.06276	39.56626	1715.31812
39.61926	1444.90607	39.61926	1345.54955	39.61926	1686.95077
39.67226	1447.2641	  39.67226	1323.45859	39.67226	1657.52611
39.72526	1373.45741	39.72526	1322.0208	  39.72526	1711.85647
39.77826	1358.05086	39.77826	1336.8855	  39.77826	1668.46713
39.83126	1375.1911	  39.83126	1377.35012	39.83126	1654.30281
39.88426	1366.77599	39.88426	1361.59501	39.88426	1687.55038
39.93726	1392.3242	  39.93726	1342.36976	39.93726	1717.7518
39.99026	1423.57697	39.99026	1330.01203	39.99026	1716.72891
40.04326	1450.53764	40.04326	1331.79539	40.04326	1682.63633
40.09626	1414.06875	40.09626	1336.20664	40.09626	1646.84404
40.14926	1408.39083	40.14926	1336.26809	40.14926	1649.13403
40.20226	1414.26195	40.20226	1377.29319	40.20226	1666.52285
40.25526	1436.28275	40.25526	1341.62711	40.25526	1718.87535
40.30826	1393.80323	40.30826	1327.54722	40.30826	1696.33823
40.36126	1431.91292	40.36126	1363.79687	40.36126	1665.56242
40.41426	1368.98849	40.41426	1392.79896	40.41426	1696.09508
40.46726	1393.39095	40.46726	1418.71025	40.46726	1682.92349
40.52026	1401.78891	40.52026	1375.69293	40.52026	1693.11777
40.57326	1515.84223	40.57326	1363.19536	40.57326	1705.9707
40.62626	1472.01035	40.62626	1305.36213	40.62626	1643.7763
40.67926	1453.67979	40.67926	1427.90058	40.67926	1694.95935
40.73226	1437.01645	40.73226	1365.78097	40.73226	1678.54968
40.78526	1453.58125	40.78526	1354.11514	40.78526	1749.59408
40.83826	1455.29036	40.83826	1353.28963	40.83826	1731.19126
40.89126	1490.64606	40.89126	1432.10343	40.89126	1719.05907
40.94426	1486.2417	  40.94426	1400.87297	40.94426	1737.20824
40.99726	1433.54498	40.99726	1378.15055	40.99726	1655.71526
41.05026	1499.6238	  41.05026	1429.79769	41.05026	1662.94106
41.10326	1474.50402	41.10326	1402.5035	41.10326	1704.85783
41.15626	1443.56913	41.15626	1382.54518	41.15626	1806.8866
41.20926	1477.04002	41.20926	1394.86747	41.20926	1733.79139
41.26226	1424.0328	  41.26226	1384.81444	41.26226	1674.76643
41.31526	1437.90985	41.31526	1371.76277	41.31526	1731.30561
41.36826	1451.37608	41.36826	1432.83867	41.36826	1764.50003
41.42126	1464.49479	41.42126	1412.96218	41.42126	1695.90798
41.47426	1410.72058	41.47426	1407.1628	41.47426	1788.01948
41.52726	1424.564	  41.52726	1411.80046	41.52726	1752.72066
41.58026	1488.21916	41.58026	1429.78763	41.58026	1809.29566
41.63326	1514.92655	41.63326	1460.90995	41.63326	1895.73473
41.68626	1496.01661	41.68626	1456.81396	41.68626	1737.96528
41.73926	1495.94419	41.73926	1453.69998	41.73926	1729.65188
41.79226	1426.90363	41.79226	1372.39476	41.79226	1704.8049
41.84526	1464.90695	41.84526	1429.35559	41.84526	1658.37413
41.89826	1520.30766	41.89826	1461.06765	41.89826	1727.22435
41.95126	1524.38337	41.95126	1372.00983	41.95126	1731.13655
42.00426	1477.84171	42.00426	1372.39476	42.00426	1711.85906
42.05726	1509.26537	42.05726	1380.21898	42.05726	1665.29072
42.11026	1521.67567	42.11026	1384.11343	42.11026	1674.92368
42.16326	1468.28415	42.16326	1396.57027	42.16326	1742.07764
42.21626	1440.59275	42.21626	1389.68023	42.21626	1724.14794
42.26926	1452.27602	42.26926	1375.86842	42.26926	1733.18034
42.32226	1503.97288	42.32226	1441.54904	42.32226	1651.35288
42.37526	1495.51293	42.37526	1442.86375	42.37526	1712.68322
42.42826	1490.14068	42.42826	1465.3898	42.42826	1653.10182
42.48126	1472.87349	42.48126	1393.86278	42.48126	1737.29897
42.53426	1443.87834	42.53426	1416.75548	42.53426	1719.53261
42.58726	1459.67577	42.58726	1420.67549	42.58726	1655.4686
42.64026	1479.42066	42.64026	1441.95037	42.64026	1707.12227
42.69326	1455.57745	42.69326	1424.86074	42.69326	1697.84847
42.74626	1462.56429	42.74626	1418.39861	42.74626	1726.78928
42.79926	1500.48404	42.79926	1434.78663	42.79926	1745.94653
42.85226	1436.834	  42.85226	1440.97784	42.85226	1705.63171
42.90526	1497.70158	42.90526	1449.73207	42.90526	1704.99351
42.95826	1459.76544	42.95826	1482.30108	42.95826	1703.90105
43.01126	1508.61563	43.01126	1437.11514	43.01126	1726.55267
43.06426	1483.93696	43.06426	1436.61771	43.06426	1695.93426
43.11726	1518.63593	43.11726	1427.62084	43.11726	1712.4672
43.17026	1476.92818	43.17026	1457.04117	43.17026	1681.64753
43.22326	1485.30766	43.22326	1426.55082	43.22326	1656.41885
43.27626	1476.61346	43.27626	1450.36421	43.27626	1687.39403
43.32926	1494.65177	43.32926	1508.5879	43.32926	1679.34471
43.38226	1551.88086	43.38226	1496.61547	43.38226	1709.74726
43.43526	1545.05762	43.43526	1474.82807	43.43526	1682.81792
43.48826	1525.75479	43.48826	1497.9585	43.48826	1707.37787
43.54126	1555.83526	43.54126	1504.56143	43.54126	1693.66223
43.59426	1528.19853	43.59426	1488.50919	43.59426	1717.94202
43.64726	1510.3372	 43.64726	1431.14578	43.64726	1753.71585
43.70026	1524.96396	43.70026	1435.98006	43.70026	1732.60302
43.75326	1527.19282	43.75326	1477.32447	43.75326	1734.3501
43.80626	1519.54527	43.80626	1476.44546	43.80626	1749.42449
43.85926	1469.36443	43.85926	1460.26298	43.85926	1731.25485
43.91226	1498.95349	43.91226	1480.12138	43.91226	1709.39812
43.96526	1540.72588	43.96526	1480.63291	43.96526	1757.59434
44.01826	1561.12602	44.01826	1472.38216	44.01826	1752.02093
44.07126	1518.21578	44.07126	1490.82178	44.07126	1743.50449
44.12426	1552.95934	44.12426	1443.35059	44.12426	1752.60934
44.17726	1609.36767	44.17726	1380.40899	44.17726	1715.39157
44.23026	1530.34982	44.23026	1432.12321	44.23026	1717.35639
44.28326	1553.26474	44.28326	1465.41179	44.28326	1750.85363
44.33626	1548.99277	44.33626	1472.37754	44.33626	1723.09185
44.38926	1530.08497	44.38926	1468.26968	44.38926	1726.18698
44.44226	1544.01049	44.44226	1509.01081	44.44226	1725.8925
44.49526	1525.6303	  44.49526	1489.93391	44.49526	1759.82892
44.54826	1520.01089	44.54826	1481.96916	44.54826	1799.98526
44.60126	1557.05116	44.60126	1485.38489	44.60126	1796.34273
44.65426	1550.65629	44.65426	1484.75847	44.65426	1774.68227
44.70726	1514.58012	44.70726	1523.96259	44.70726	1789.58662
44.76026	1517.47617	44.76026	1531.0883	44.76026	1821.63763
44.81326	1564.32389	44.81326	1528.86949	44.81326	1813.15445
44.86626	1531.02174	44.86626	1525.31657	44.86626	1750.90601
44.91926	1513.0422	  44.91926	1502.57966	44.91926	1722.12966
44.97226	1508.45412	44.97226	1460.59617	44.97226	1706.02189
45.02526	1538.46301	45.02526	1501.90856	45.02526	1744.88416
45.07826	1580.01132	45.07826	1507.98111	45.07826	1794.85458
45.13126	1593.18001	45.13126	1502.55224	45.13126	1748.93671
45.18426	1572.23409	45.18426	1448.51747	45.18426	1771.74395
45.23726	1547.9643	  45.23726	1502.82231	45.23726	1799.0135
45.29026	1562.53568	45.29026	1548.73836	45.29026	1751.07896
45.34326	1559.04119	45.34326	1526.31095	45.34326	1749.50751
45.39626	1616.71223	45.39626	1466.83646	45.39626	1757.21547
45.44926	1590.2995	  45.44926	1499.41613	45.44926	1804.31309
45.50226	1525.21699	45.50226	1498.89206	45.50226	1823.72695
45.55526	1546.61499	45.55526	1488.72565	45.55526	1810.61199
45.60826	1574.54	    45.60826	1532.16775	45.60826	1814.8611
45.66126	1556.93922	45.66126	1528.93902	45.66126	1833.49784
45.71426	1539.32343	45.71426	1491.05577	45.71426	1866.57054
45.76726	1591.82592	45.76726	1515.71554	45.76726	1843.89641
45.82026	1603.53869	45.82026	1579.05365	45.82026	1809.21852
45.87326	1585.21404	45.87326	1547.17886	45.87326	1885.97594
45.92626	1564.56992	45.92626	1504.4812	45.92626	1823.89475
45.97926	1618.56553	45.97926	1471.44454	45.97926	1811.60128
46.03226	1613.39089	46.03226	1516.51284	46.03226	1853.67653
46.08526	1510.43927	46.08526	1514.94401	46.08526	1869.58944
46.13826	1580.57334	46.13826	1524.44689	46.13826	1823.16155
46.19126	1624.84918	46.19126	1518.85888	46.19126	1859.77334
46.24426	1546.05602	46.24426	1511.27054	46.24426	1828.98036
46.29726	1515.11006	46.29726	1483.53064	46.29726	1871.22026
46.35026	1582.5187	  46.35026	1466.50358	46.35026	1913.30159
46.40326	1610.45444	46.40326	1506.51299	46.40326	1883.23274
46.45626	1627.06173	46.45626	1568.90562	46.45626	1820.46571
46.50926	1645.05258	46.50926	1581.68253	46.50926	1847.45081
46.56226	1667.4406	  46.56226	1541.46428	46.56226	1869.37371
46.61526	1682.96594	46.61526	1586.09616	46.61526	1829.32065
46.66826	1635.82221	46.66826	1563.08116	46.66826	1889.3255
46.72126	1659.40744	46.72126	1549.29011	46.72126	1859.02468
46.77426	1605.85075	46.77426	1586.7852	46.77426	1912.05567
46.82726	1634.39695	46.82726	1616.82367	46.82726	1914.53261
46.88026	1642.60937	46.88026	1634.40212	46.88026	1978.77101
46.93326	1672.08479	46.93326	1551.51827	46.93326	1930.59379
46.98626	1684.18857	46.98626	1548.51699	46.98626	1945.20224
47.03926	1631.25875	47.03926	1592.56983	47.03926	1888.62671
47.09226	1622.33212	47.09226	1508.97214	47.09226	1886.82122
47.14526	1666.42809	47.14526	1576.7232	47.14526	1936.15514
47.19826	1606.03766	47.19826	1521.85365	47.19826	1933.28895
47.25126	1586.63571	47.25126	1609.55929	47.25126	1938.79353
47.30426	1617.12835	47.30426	1475.90234	47.30426	1947.76554
47.35726	1558.02513	47.35726	1532.75403	47.35726	1858.55979
47.41026	1565.9264	  47.41026	1568.68139	47.41026	1916.44828
47.46326	1629.99251	47.46326	1567.01182	47.46326	1933.00906
47.51626	1605.36509	47.51626	1528.49713	47.51626	1913.65128
